wavelength	flux
1.57	0.011034324
1.82	0.019722778
2.0700002	0.01538531
2.3200002	0.025650121
2.5700002	0.0039244923
2.8200002	0.014895489
3.0700002	0.013700427
3.3200002	0.029755287
3.5700002	0.019997822
3.8200002	0.021760065
4.07	0.03963964
4.32	0.02946798
4.57	0.021404643
4.82	0.03291667
5.07	0.036491446
5.32	0.028978381
5.57	0.046905354
5.82	0.03284433
6.07	0.04358403
6.32	0.043247934
6.5699997	0.026768772
6.8199997	0.025017744
7.0699997	0.039513003
7.3199997	0.035618514
7.5699997	0.033524275
7.8199997	0.021151278
8.07	0.023714816
8.32	0.039063934
8.57	0.020468488
8.82	0.02626878
9.07	0.02243748
9.32	0.021922275
9.57	0.024813112
9.82	0.022069678
10.07	0.046934374
10.32	0.059593104
10.57	0.03807041
10.82	0.02927639
11.07	0.027812429
11.32	0.028645713
11.57	0.029206652
11.82	0.02358419
12.07	0.019786416
12.32	0.02710057
12.57	0.016830292
12.82	0.012010279
13.07	0.023569338
13.32	0.017466884
13.57	0.023669466
13.82	0.01770968
14.07	0.027330693
14.32	0.02671561
14.57	0.02990027
14.82	0.09068615
15.07	0.037970163
15.32	0.059460647
15.57	0.02179606
15.82	0.03601379
16.07	0.034968115
16.32	0.038858302
16.57	0.026803754
16.82	0.12046991
17.07	0.6027549
17.32	0.24062571
17.57	0.3136738
17.82	0.2472136
18.07	0.4228948
18.32	0.13342278
18.57	0.19530836
18.82	0.41302934
19.07	0.15106139
19.32	0.44918543
19.57	0.3754234
19.82	0.106232464
20.07	0.26136124
20.32	0.3160654
20.57	0.07625431
20.82	0.10821826
21.07	0.2588347
21.32	0.070761
21.57	0.06424473
21.82	0.12318531
22.07	0.14715745
22.32	0.13304499
22.57	0.17477287
22.82	0.11817443
23.07	0.04597545
23.32	0.07033963
23.57	0.058694515
23.82	0.059615824
24.07	0.098888636
24.32	0.1408417
24.57	0.08523357
24.82	0.054796416
25.07	0.06735402
25.32	0.08688551
25.57	0.23044714
25.820002	0.25619623
26.070002	0.08292927
26.320002	0.05146803
26.570002	0.093811534
26.820002	0.021393234
27.070002	0.06644167
27.320002	0.10180522
27.570002	0.08712248
27.820002	0.076333396
28.070002	0.03750348
28.320002	0.2609096
28.570002	0.21881518
28.820002	0.022001414
29.070002	0.047153722
29.320002	0.047402218
29.570002	0.0563955
29.820002	0.01495878
30.070002	0.04756742
30.320002	1.2723236
30.570002	0.20381488
30.820002	0.03873515
31.070002	0.016877854
31.320002	0.059585787
31.570002	0.08550771
31.820002	0.050500404
32.070004	0.06354577
32.320004	0.01845076
32.570004	0.014100887
32.820004	0.026049294
33.070004	0.013847999
33.320004	0.0976598
33.570004	0.20398735
33.820004	0.032996446
34.070004	0.040360376
34.570004	0.07986654
34.820004	0.049272038
35.070004	0.046814658
35.320004	0.044513352
35.570004	0.020461425
35.820004	0.073576696
36.070004	0.024985567
36.320004	0.050670072
36.570004	0.13036445
36.820004	0.08245587
37.070004	0.0034158246
37.320004	0.0053133434
38.070004	0.010332117
38.320004	0.016492886
39.320004	0.0011251173
39.820004	0.0107792495
40.070004	0.019294074
41.070004	0.0064067706
41.320004	0.004154505
41.570004	0.024773836
41.820004	0.006249514
42.070004	0.0004919833
42.570004	0.004034994
42.820004	0.013246112
43.070004	0.014137299
43.320004	0.015343186
43.570004	0.02805116
43.820004	0.0019060981
44.320004	0.0043097427
44.570004	0.00776683
44.820004	0.0062155905
45.070004	0.00072867604
45.320004	0.010940792
45.570004	0.004307706
45.820004	0.0054803053
46.070004	0.0068139853
46.320004	0.027718652
46.570004	0.03229967
46.820004	0.008577509
47.070004	0.008431482
47.820004	0.006815997
48.070004	0.011007347
48.320004	0.008234547
48.570004	0.010317467
48.820004	0.009852232
49.070004	0.010203304
49.320004	0.0028063296
49.570004	0.015825834
49.820004	0.051035363
50.070004	0.016384356
50.320004	0.0035944004
50.570004	0.0035944004
50.820004	0.0035944004
51.070004	0.0035944004
51.320004	0.0035944004
51.570004	0.0035944004
51.820004	0.0035944004
52.070004	0.0035944004
52.320004	0.0035944004
52.570004	0.0035944004
52.820004	0.0035944004
53.070004	0.0035944004
53.320004	0.0035944004
53.570004	0.0035944004
53.820004	0.0035944004
54.070004	0.0035944004
54.320004	0.0035944004
54.570004	0.0035944004
54.820004	0.0035944004
55.070004	0.008719981
55.320004	0.010165658
55.570004	0.010165658
55.820004	0.010165658
56.070004	0.010165658
56.320004	0.010165658
56.570004	0.010165658
56.820004	0.010165658
57.070004	0.010165658
57.320004	0.010165658
57.570004	0.010165658
57.820004	0.010165658
58.070004	0.010165658
58.320004	0.010165658
58.570004	0.010165658
58.820004	0.010165658
59.070004	0.010165658
59.320004	0.010165658
59.570004	0.010165658
59.820004	0.010165658
60.070004	0.010165658
60.320004	0.010165658
60.570004	0.010165658
60.820004	0.010165658
61.070004	0.010165658
61.320004	0.010165658
61.570004	0.010165658
61.820004	0.010165658
62.070004	0.010165658
62.320004	0.010165658
62.570004	0.010165658
62.820004	0.010165658
63.070004	0.010165658
63.320004	0.010165658
63.570004	0.010165658
63.820004	0.010165658
64.07	0.010165658
64.32	0.010165658
64.57	0.010165658
64.82	0.010165658
65.07	0.008649641
65.32	0.008222044
65.57	0.008222044
65.82	0.008222044
66.07	0.008222044
66.32	0.008222044
66.57	0.008222044
66.82	0.008222044
67.07	0.008222044
67.32	0.008222044
67.57	0.008222044
67.82	0.008222044
68.07	0.008222044
68.32	0.008222044
68.57	0.008222044
68.82	0.008222044
69.07	0.008222044
69.32	0.008222044
69.57	0.008222044
69.82	0.008222044
70.07	0.008222044
70.32	0.008222044
70.57	0.008222044
70.82	0.008222044
71.07	0.008222044
71.32	0.008222044
71.57	0.008222044
71.82	0.008222044
72.07	0.008222044
72.32	0.008222044
72.57	0.008222044
72.82	0.008222044
73.07	0.008222044
73.32	0.008222044
73.57	0.008222044
73.82	0.008222044
74.07	0.008222044
74.32	0.008222044
74.57	0.008222044
74.82	0.008222044
75.07	0.0132715795
75.32	0.014695808
75.57	0.014695808
75.82	0.014695808
76.07	0.014695808
76.32	0.014695808
76.57	0.014695808
76.82	0.014695808
77.07	0.014695808
77.32	0.014695808
77.57	0.014695808
77.82	0.014695808
78.07	0.014695808
78.32	0.014695808
78.57	0.014695808
78.82	0.014695808
79.07	0.014695808
79.32	0.014695808
79.57	0.014695808
79.82	0.014695808
80.07	0.014695808
80.32	0.014695808
80.57	0.014695808
80.82	0.014695808
81.07	0.014695808
81.32	0.014695808
81.57	0.014695808
81.82	0.014695808
82.07	0.014695808
82.32	0.014695808
82.57	0.014695808
82.82	0.014695808
83.07	0.014695808
83.32	0.014695808
83.57	0.014695808
83.82	0.014695808
84.07	0.014695808
84.32	0.014695808
84.57	0.014695808
84.82	0.014695808
85.07	0.014695808
85.32	0.014695808
85.57	0.018682081
85.82	0.025186002
86.07	0.025186002
86.32	0.025186002
86.57	0.025186002
86.82	0.025186002
87.07	0.025186002
87.32	0.025186002
87.57	0.025186002
87.82	0.025186002
88.07	0.025186002
88.32	0.025186002
88.57	0.025186002
88.82	0.025186002
89.07	0.025186002
89.32	0.025186002
89.57	0.025186002
89.82	0.025186002
90.07	0.025186002
90.32	0.025186002
90.57	0.025186002
90.82	0.025186002
91.07	0.025186002
91.32	0.025186002
91.57	0.025186002
91.82	0.025186002
92.07	0.025186002
92.32	0.025186002
92.57	0.025186002
92.82	0.025186002
93.07	0.025186002
93.32	0.025186002
93.57	0.025186002
93.82	0.025186002
94.07	0.025186002
94.32	0.025186002
94.57	0.025186002
94.82	0.025186002
95.07	0.025186002
95.32	0.025186002
95.57	0.025186002
95.82	0.025186002
96.07	0.025186002
96.32	0.025186002
96.57	0.025186002
96.82	0.025186002
97.07	0.020437382
97.32	0.012689629
97.57	0.012689629
97.82	0.012689629
98.07	0.012689629
98.32	0.012689629
98.57	0.012689629
98.82	0.012689629
99.07	0.012689629
99.32	0.012689629
99.57	0.012689629
99.82	0.012689629
100.07	0.012689629
100.32	0.012689629
100.57	0.012689629
100.82	0.012689629
101.07	0.012689629
101.32	0.012689629
101.57	0.012689629
101.82	0.012689629
102.07	0.012689629
102.32	0.012689629
102.57	0.012689629
102.82	0.012689629
103.07	0.085131966
103.32	0.08034882
103.57	0.014417123
103.82	0.024679603
104.07	0.0075166607
104.57	0.010504404
104.82	0.008577274
105.32	0.0012635998
105.57	0.030079613
105.82	0.024113895
106.07	0.043853655
106.32	0.020253867
106.57	0.008397627
106.82	0.009131773
107.07	0.015528117
107.32	0.019728644
107.57	0.0044513154
107.82	0.010907272
108.07	0.017081708
108.32	0.006738887
108.57	0.03177834
108.82	0.002654197
109.32	0.008270507
109.57	0.011726055
109.82	0.006542039
110.07	0.013476591
110.32	0.02147197
110.57	0.008145334
111.32	0.014748239
111.57	0.010639761
111.82	0.0054979934
112.07	0.007822276
112.32	0.011822422
112.57	0.0026374205
112.82	0.013274634
113.07	0.001209812
113.32	0.0025737379
113.57	0.004736913
113.82	0.005752728
114.07	0.0080239475
114.32	0.00914076
114.57	0.0073558725
114.82	0.007262879
115.07	0.006021846
115.32	0.009371376
115.57	0.017295813
115.82	0.012925007
116.07	0.012540449
116.32	0.012542033
116.57	0.0239668
116.82	0.02175076
117.07	0.019929856
117.32	0.012131891
117.57	0.13333233
117.82	0.011431738
118.07	0.008056153
118.32	0.00958171
118.57	0.010989635
118.82	0.013736618
119.07	0.020152973
119.32	0.024111226
119.57	0.015853738
119.82	0.021926142
120.07	0.026404966
120.32	0.01626501
120.57	0.24043441
120.82	0.02292968
121.07	0.00054419704
121.32	0.18205746
121.57	12.266254
121.82	0.17794397
122.07	0.016376957
122.32	0.017646493
122.57	0.013861666
122.82	0.013485925
123.07	0.011156998
123.32	0.010045077
123.57	0.009861723
123.82	0.04447957
124.07	0.010996163
124.32	0.028605003
124.57	0.008296499
124.82	0.010253938
125.07	0.008822143
125.32	0.013290652
125.57	0.011920469
125.82	0.016667018
126.07	0.023336299
126.32	0.005532719
126.57	0.04827447
126.82	0.006866331
127.07	0.0066166846
127.32	0.0058578146
127.57	0.014842808
127.82	0.0126771955
128.06999	0.010030428
128.31999	0.00526608
128.56999	0.0048937676
128.81999	0.012460783
129.06999	0.009100962
129.31999	0.006244067
129.56999	0.013456455
129.81999	0.013156787
130.06999	0.020507807
130.31999	0.11467875
130.56999	0.25496793
130.81999	0.025765002
131.06999	0.016581211
131.31999	0.013055097
131.56999	0.013617031
131.81999	0.018968794
132.06999	0.008107723
132.31999	0.011767381
132.56999	0.0096636005
132.81999	0.015499789
133.06999	0.009312252
133.31999	0.10242139
133.56999	0.34794435
133.81999	0.010024966
134.06999	0.0094010355
134.31999	0.010965207
134.56999	0.010408826
134.81999	0.011154315
135.06999	0.029092882
135.31999	0.013643847
135.56999	0.044537246
135.81999	0.030348204
136.06999	0.017325671
136.31999	0.017535608
136.56999	0.012993039
136.81999	0.015510692
137.06999	0.021196527
137.31999	0.017984489
137.56999	0.01663766
137.81999	0.016017854
138.06999	0.020054776
138.31999	0.016112989
138.56999	0.016212838
138.81999	0.017913511
139.06999	0.017579004
139.31999	0.15455766
139.56999	0.019307185
139.81999	0.020448126
140.06999	0.03759391
140.31999	0.087802574
140.56999	0.030107573
140.81999	0.0240806
141.06999	0.02631888
141.31999	0.025509484
141.56999	0.025682805
141.81999	0.024169644
142.06999	0.023638897
142.31999	0.02521681
142.56999	0.035532918
142.81999	0.024669694
143.06999	0.02865352
143.31999	0.038195435
143.56999	0.033527352
143.81999	0.0285072
144.06999	0.030025875
144.31999	0.032467347
144.56999	0.034623306
144.81999	0.031856593
145.06999	0.03160576
145.31999	0.0328437
145.56999	0.038365237
145.81999	0.03733632
146.06999	0.034610994
146.31999	0.0416094
146.56999	0.039126627
146.81999	0.05377066
147.06999	0.043869648
147.31999	0.08861655
147.56999	0.04224214
147.81999	0.03981276
148.06999	0.060379118
148.31999	0.052730024
148.56999	0.05861771
148.81999	0.046285592
149.06999	0.045403145
149.31999	0.052714616
149.56999	0.047244165
149.81999	0.050781224
150.06999	0.058058396
150.31999	0.057154857
150.56999	0.05437575
150.81999	0.05612179
151.06999	0.06806627
151.31999	0.06123291
151.56999	0.06247484
151.81999	0.061316077
152.06999	0.06429336
152.31999	0.06803039
152.56999	0.10806623
152.81999	0.0733489
153.06999	0.06967797
153.31999	0.122348025
153.56999	0.07908057
153.81999	0.08081995
154.06999	0.08943013
154.31999	0.076658465
154.56999	0.08118245
154.81999	0.38083535
155.06999	0.24506302
155.31999	0.078654
155.56999	0.08453097
155.81999	0.13296121
156.06999	0.21806188
156.31999	0.09887915
156.56999	0.10222109
156.81999	0.09882371
157.06999	0.13316056
157.31999	0.12326927
157.56999	0.1311227
157.81999	0.097533375
158.06999	0.11480317
158.31999	0.098723836
158.56999	0.12220342
158.81999	0.12597804
159.06999	0.11380811
159.31999	0.11882365
159.56999	0.11533749
159.81999	0.10078653
160.06999	0.12635168
160.31999	0.14428592
160.56999	0.120789126
160.81999	0.13687043
161.06999	0.15689406
161.31999	0.18257704
161.56999	0.13075815
161.81999	0.1425221
162.06999	0.16520528
162.31999	0.16704473
162.56999	0.19159505
162.81999	0.1840864
163.06999	0.15933129
163.31999	0.21664765
163.56999	0.15790614
163.81999	0.19673029
164.06999	0.25756055
164.31999	0.20717254
164.56999	0.18692322
164.81999	0.19637984
165.06999	0.1677075
165.31999	0.2101981
165.56999	0.39838958
165.81999	0.5725206
166.06999	0.22981542
166.31999	0.24126829
166.56999	0.2506644
166.81999	0.20896286
167.06999	0.3120361
167.31999	0.26096827
167.56999	0.26118568
167.81999	0.25904012
168.06999	0.20452096
168.31999	0.20860715
168.56999	0.34796816
168.81999	0.2453627
169.06999	0.35707462
169.31999	0.37944928
169.56999	0.42879295
169.81999	0.35362345
170.06999	0.3814341
170.31999	0.28471056
170.56999	0.31910536
170.81999	0.32620472
171.06999	0.34805036
171.31999	0.36457166
171.56999	0.4795188
171.81999	0.4830329
172.06999	0.48100495
172.31999	0.42532194
172.56999	0.53205734
172.81999	0.41469902
173.06999	0.29945657
173.31999	0.33695304
173.56999	0.37920517
173.81999	0.38443682
174.06999	0.4911912
174.31999	0.523313
174.56999	0.60465866
174.81999	0.5259468
175.06999	0.6410658
175.31999	0.63788295
175.56999	0.6633204
175.81999	0.65725476
176.06999	0.6444899
176.31999	0.6246001
176.56999	0.5693009
176.81999	0.7257259
177.06999	0.7985813
177.31999	0.89458513
177.56999	0.67264706
177.81999	0.84250414
178.06999	0.89323187
178.31999	0.8737007
178.56999	0.90709424
178.81999	0.9549073
179.06999	1.0234694
179.31999	0.7622879
179.56999	0.8368564
179.81999	0.91239697
180.06999	0.96897924
180.31999	0.9847268
180.56999	1.0203347
180.81999	1.4040023
181.06999	1.061276
181.31999	0.9950688
181.56999	1.7720777
181.81999	1.4613178
182.06999	1.1695994
182.31999	1.3190341
182.56999	1.2985044
182.81999	1.2149749
183.06999	1.2535903
183.31999	1.3205518
183.56999	1.3620913
183.81999	1.4508145
184.06999	1.1463814
184.31999	1.269218
184.56999	1.2441514
184.81999	1.0650451
185.06999	1.1541821
185.31999	1.2804323
185.56999	1.6028987
185.81999	1.3381805
186.06999	1.453688
186.31999	1.4581262
186.56999	1.4422646
186.81999	1.779735
187.06999	1.8049024
187.31999	1.7880447
187.56999	1.7249465
187.81999	1.6746658
188.06999	1.6054537
188.31999	1.9919198
188.56999	1.9209838
188.81999	1.9541137
189.06999	2.192341
189.31999	2.197867
189.56999	2.2162123
189.81999	1.8752652
190.06999	2.0797608
190.31999	2.2953176
190.56999	2.1518037
190.81999	2.4590125
191.06999	2.1384408
191.31999	2.3017116
191.56999	2.5674179
191.81999	2.3981545
192.06999	2.6982808
192.31999	2.5554738
192.56999	2.530329
192.81999	2.594051
193.06999	1.9655955
193.31999	1.9324623
193.56999	1.7570359
193.81999	2.387685
194.06999	2.9031086
194.31999	3.3773346
194.56999	3.0158699
194.81999	3.5729003
195.06999	3.066324
195.31999	3.15141
195.56999	3.251369
195.81999	3.2996132
196.06999	3.251443
196.31999	3.2758923
196.56999	3.7718606
196.81999	3.9411497
197.06999	3.7061298
197.31999	3.6617005
197.56999	3.6750934
197.81999	3.6342824
198.06999	3.86351
198.31999	3.890944
198.56999	3.70836
198.81999	3.591789
199.06999	3.7254682
199.31999	4.2680187
199.56999	4.033946
199.81999	3.9217224
200.06999	4.2200747
200.31999	4.3307757
200.56999	4.4334326
200.81999	4.284556
201.06999	4.4210677
201.31999	4.7936273
201.56999	4.6353354
201.81999	5.046783
202.06999	4.8192515
202.31999	4.8554993
202.56999	4.028822
202.81999	5.0395966
203.06999	5.4134707
203.31999	5.023663
203.56999	5.3157716
203.81999	5.453311
204.06999	5.427227
204.31999	5.9360666
204.56999	6.0979195
204.81999	5.852622
205.06999	6.041384
205.31999	6.3167763
205.56999	5.8971825
205.81999	6.097497
206.06999	6.5525966
206.31999	5.8644037
206.56999	6.5573144
206.81999	6.8053207
207.06999	6.8354836
207.31999	6.98588
207.56999	7.2920322
207.81999	7.3414164
208.06999	7.647826
208.31999	7.650619
208.56999	8.0504675
208.81999	9.588467
209.06999	9.280791
209.31999	10.866894
209.56999	11.414809
209.81999	12.143239
210.06999	11.67013
210.31999	13.183928
210.56999	16.550957
210.81999	14.290283
211.06999	12.473799
211.31999	17.049623
211.56999	14.981401
211.81999	19.16043
212.06999	21.52525
212.31999	13.057396
212.56999	12.298361
212.81999	17.743286
213.06999	14.509861
213.31999	16.61145
213.56999	13.729058
213.81999	17.827536
214.06999	21.03036
214.31999	23.684513
214.56999	20.574623
214.81999	21.26834
215.06999	19.265272
215.31999	22.845078
215.56999	18.784016
215.81999	12.306765
216.06999	19.430548
216.31999	20.241507
216.56999	17.285288
216.81999	15.214447
217.06999	16.42711
217.31999	19.72785
217.56999	15.512751
217.81999	15.759018
218.06999	27.216242
218.31999	25.39609
218.56999	24.71627
218.81999	17.839752
219.06999	21.637016
219.31999	27.10511
219.56999	20.918434
219.81999	27.40992
220.06999	20.360136
220.31999	31.674234
220.56999	28.907898
220.81999	20.142723
221.06999	17.168037
221.31999	22.063938
221.56999	23.384296
221.81999	16.22525
222.06999	28.148056
222.31999	26.178864
222.56999	25.392754
222.81999	24.427319
223.06999	23.650127
223.31999	37.15436
223.56999	37.715645
223.81999	29.736872
224.06999	32.017567
224.31999	26.357222
224.56999	29.29993
224.81999	35.6445
225.06999	28.317938
225.31999	27.020947
225.56999	27.698166
225.81999	28.300632
226.06999	24.488775
226.31999	25.200142
226.56999	19.396158
226.81999	20.222128
227.06999	18.53999
227.31999	20.607817
227.56999	20.793398
227.81999	24.792862
228.06999	29.212349
228.31999	31.77933
228.56999	32.08805
228.81999	26.116678
229.06999	25.337826
229.31999	28.016392
229.56999	32.870846
229.81999	20.074936
230.06999	23.53388
230.31999	26.29854
230.56999	37.35627
230.81999	36.199715
231.06999	23.292028
231.31999	21.15519
231.56999	33.28539
231.81999	33.96958
232.06999	22.690128
232.31999	38.723026
232.56999	28.70062
232.81999	29.018976
233.06999	31.813326
233.31999	24.184784
233.56999	34.01923
233.81999	20.533361
234.06999	26.436575
234.31999	24.94366
234.56999	19.297436
234.81999	20.640831
235.06999	31.863007
235.31999	37.81401
235.56999	32.44225
235.81999	37.07563
236.06999	23.044865
236.31999	33.367783
236.56999	28.176922
236.81999	26.13796
237.06999	38.103817
237.31999	31.573391
237.56999	30.299992
237.81999	38.002087
238.06999	24.660313
238.31999	16.531046
238.56999	33.14763
238.81999	27.276966
239.06999	37.77039
239.31999	38.123432
239.56999	19.980516
239.81999	31.35824
240.06999	29.87832
240.31999	34.50802
240.56999	21.29419
240.81999	27.709167
241.06999	25.236284
241.31999	27.660448
241.56999	35.872196
241.81999	42.57528
242.06999	43.957325
242.31999	48.573936
242.56999	42.192642
242.81999	49.077133
243.06999	47.18625
243.31999	43.57563
243.56999	38.99349
243.81999	45.578304
244.06999	43.28495
244.31999	46.144848
244.56999	43.52669
244.81999	35.50869
245.06999	36.309364
245.31999	33.208584
245.56999	36.161945
245.81999	38.471714
246.06999	34.25448
246.31999	30.792887
246.56999	37.93296
246.81999	39.150497
247.06999	40.09124
247.31999	37.150932
247.56999	46.14913
247.81999	40.097954
248.06999	38.660656
248.31999	28.772058
248.56999	36.558517
248.81999	30.431973
249.06999	23.19181
249.31999	38.901215
249.56999	48.298256
249.81999	48.583122
250.06999	46.9731
250.31999	44.522556
250.56999	46.16013
250.81999	36.553856
251.06999	44.735176
251.31999	41.22165
251.56999	27.395126
251.81999	31.859089
252.06999	35.153194
252.31999	30.67977
252.56999	31.007917
252.81999	30.09074
253.06999	35.278893
253.31999	41.671898
253.56999	40.284584
253.81999	39.87132
254.06999	40.25333
254.31999	48.42552
254.56999	42.56327
254.81999	44.017254
255.06999	41.216545
255.31999	60.872322
255.56999	64.3545
255.81999	58.794907
256.07	69.87267
256.32	48.905468
256.57	80.08255
256.82	78.38788
257.07	94.49762
257.32	99.58851
257.57	63.496246
257.82	82.22252
258.07	117.842545
258.32	105.46192
258.57	55.550133
