wavelength	flux
1.57	0.03429292
1.82	0.06070766
2.0700002	0.04784592
2.3200002	0.07841602
2.5700002	0.012732403
2.8200002	0.04550204
3.0700002	0.042205676
3.3200002	0.09047217
3.5700002	0.0612787
3.8200002	0.06554699
4.07	0.11987653
4.32	0.09108115
4.57	0.06510284
4.82	0.09960878
5.07	0.111424044
5.32	0.08827598
5.57	0.14181206
5.82	0.099533856
6.07	0.13173485
6.32	0.13132189
6.5699997	0.08154531
6.8199997	0.07598706
7.0699997	0.11978337
7.3199997	0.10771633
7.5699997	0.10172341
7.8199997	0.064843364
8.07	0.071933284
8.32	0.11816172
8.57	0.06225826
8.82	0.07929419
9.07	0.06781734
9.32	0.066525534
9.57	0.074995086
9.82	0.06643122
10.07	0.14221494
10.32	0.18065639
10.57	0.11541039
10.82	0.08875132
11.07	0.08431332
11.32	0.08683942
11.57	0.08853991
11.82	0.071495436
12.07	0.059982482
12.32	0.082155325
12.57	0.051021
12.82	0.036409132
13.07	0.071450405
13.32	0.052950826
13.57	0.07175394
13.82	0.053686865
14.07	0.08285293
14.32	0.080988325
14.57	0.09064261
14.82	0.2749149
15.07	0.11510646
15.32	0.18025482
15.57	0.06607472
15.82	0.109175734
16.07	0.10600577
16.32	0.117798865
16.57	0.08125554
16.82	0.36520427
17.07	1.8272501
17.32	0.7294564
17.57	0.9509015
17.82	0.74942756
18.07	1.2820048
18.32	0.40447086
18.57	0.5920769
18.82	1.2520976
19.07	0.4579423
19.32	1.3617048
19.57	1.1380954
19.82	0.32204357
20.07	0.7923161
20.32	0.9581517
20.57	0.23116478
20.82	0.3280635
21.07	0.7846569
21.32	0.21451183
21.57	0.1947578
21.82	0.37343606
22.07	0.4461075
22.32	0.40332568
22.57	0.5298236
22.82	0.35824555
23.07	0.13937448
23.32	0.21323445
23.57	0.17793229
23.82	0.18072528
24.07	0.29978073
24.32	0.42696133
24.57	0.2583854
24.82	0.16611524
25.07	0.20418361
25.32	0.26339328
25.57	0.6986002
25.820002	0.7766584
26.070002	0.25139993
26.320002	0.15602523
26.570002	0.2843895
26.820002	0.06485355
27.070002	0.2014178
27.320002	0.30862236
27.570002	0.2641116
27.820002	0.23140454
28.070002	0.11369173
28.320002	0.79094684
28.570002	0.6633378
28.820002	0.06669724
29.070002	0.14294642
29.320002	0.14369974
29.570002	0.17096287
29.820002	0.045347508
30.070002	0.14420056
30.320002	3.8570466
30.570002	0.61786443
30.820002	0.11742554
31.070002	0.051165182
31.320002	0.18063419
31.570002	0.2592165
31.820002	0.15309188
32.070004	0.19263887
32.320004	0.055933442
32.570004	0.042746812
32.820004	0.078968376
33.070004	0.041980185
33.320004	0.29605553
33.570004	0.6183872
33.820004	0.100028664
34.070004	0.12235239
34.570004	0.24211529
34.820004	0.14936809
35.070004	0.14191854
35.320004	0.13494214
35.570004	0.06202877
35.820004	0.22304761
36.070004	0.07574369
36.320004	0.15360622
36.570004	0.39519954
36.820004	0.24996482
37.070004	0.010355065
37.320004	0.01610739
38.070004	0.031321798
38.320004	0.04999815
39.320004	0.0034107908
39.820004	0.032677274
40.070004	0.058489956
41.070004	0.01942211
41.320004	0.012594373
41.570004	0.075101845
41.820004	0.018945388
42.070004	0.0014914466
42.570004	0.012232078
42.820004	0.040155567
43.070004	0.042857192
43.320004	0.04651284
43.570004	0.08503704
43.820004	0.0057783322
44.320004	0.013064977
44.570004	0.023545131
44.820004	0.01884255
45.070004	0.00220898
45.320004	0.033166993
45.570004	0.013058804
45.820004	0.016613536
46.070004	0.020656584
46.320004	0.08402905
46.570004	0.09791639
46.820004	0.026002703
47.070004	0.025560025
47.820004	0.02066268
48.070004	0.033368748
48.320004	0.024963018
48.570004	0.03127738
48.820004	0.029867023
49.070004	0.030931294
49.320004	0.008507382
49.570004	0.047975983
49.820004	0.1547136
50.070004	0.049827285
50.320004	0.011089275
50.570004	0.011089275
50.820004	0.011089275
51.070004	0.011089275
51.320004	0.011089275
51.570004	0.011089275
51.820004	0.011089275
52.070004	0.011089275
52.320004	0.011089275
52.570004	0.011089275
52.820004	0.011089275
53.070004	0.011089275
53.320004	0.011089275
53.570004	0.011089275
53.820004	0.011089275
54.070004	0.011089275
54.320004	0.011089275
54.570004	0.011089275
54.820004	0.011089275
55.070004	0.027046157
55.320004	0.03154682
55.570004	0.03154682
55.820004	0.03154682
56.070004	0.03154682
56.320004	0.03154682
56.570004	0.03154682
56.820004	0.03154682
57.070004	0.03154682
57.320004	0.03154682
57.570004	0.03154682
57.820004	0.03154682
58.070004	0.03154682
58.320004	0.03154682
58.570004	0.03154682
58.820004	0.03154682
59.070004	0.03154682
59.320004	0.03154682
59.570004	0.03154682
59.820004	0.03154682
60.070004	0.03154682
60.320004	0.03154682
60.570004	0.03154682
60.820004	0.03154682
61.070004	0.03154682
61.320004	0.03154682
61.570004	0.03154682
61.820004	0.03154682
62.070004	0.03154682
62.320004	0.03154682
62.570004	0.03154682
62.820004	0.03154682
63.070004	0.03154682
63.320004	0.03154682
63.570004	0.03154682
63.820004	0.03154682
64.07	0.03154682
64.32	0.03154682
64.57	0.03154682
64.82	0.03154682
65.07	0.026719755
65.32	0.02535827
65.57	0.02535827
65.82	0.02535827
66.07	0.02535827
66.32	0.02535827
66.57	0.02535827
66.82	0.02535827
67.07	0.02535827
67.32	0.02535827
67.57	0.02535827
67.82	0.02535827
68.07	0.02535827
68.32	0.02535827
68.57	0.02535827
68.82	0.02535827
69.07	0.02535827
69.32	0.02535827
69.57	0.02535827
69.82	0.02535827
70.07	0.02535827
70.32	0.02535827
70.57	0.02535827
70.82	0.02535827
71.07	0.02535827
71.32	0.02535827
71.57	0.02535827
71.82	0.02535827
72.07	0.02535827
72.32	0.02535827
72.57	0.02535827
72.82	0.02535827
73.07	0.02535827
73.32	0.02535827
73.57	0.02535827
73.82	0.02535827
74.07	0.02535827
74.32	0.02535827
74.57	0.02535827
74.82	0.02535827
75.07	0.041113216
75.32	0.045556918
75.57	0.045556918
75.82	0.045556918
76.07	0.045556918
76.32	0.045556918
76.57	0.045556918
76.82	0.045556918
77.07	0.045556918
77.32	0.045556918
77.57	0.045556918
77.82	0.045556918
78.07	0.045556918
78.32	0.045556918
78.57	0.045556918
78.82	0.045556918
79.07	0.045556918
79.32	0.045556918
79.57	0.045556918
79.82	0.045556918
80.07	0.045556918
80.32	0.045556918
80.57	0.045556918
80.82	0.045556918
81.07	0.045556918
81.32	0.045556918
81.57	0.045556918
81.82	0.045556918
82.07	0.045556918
82.32	0.045556918
82.57	0.045556918
82.82	0.045556918
83.07	0.045556918
83.32	0.045556918
83.57	0.045556918
83.82	0.045556918
84.07	0.045556918
84.32	0.045556918
84.57	0.045556918
84.82	0.045556918
85.07	0.045556918
85.32	0.045556918
85.57	0.058062933
85.82	0.07846749
86.07	0.07846749
86.32	0.07846749
86.57	0.07846749
86.82	0.07846749
87.07	0.07846749
87.32	0.07846749
87.57	0.07846749
87.82	0.07846749
88.07	0.07846749
88.32	0.07846749
88.57	0.07846749
88.82	0.07846749
89.07	0.07846749
89.32	0.07846749
89.57	0.07846749
89.82	0.07846749
90.07	0.07846749
90.32	0.07846749
90.57	0.07846749
90.82	0.07846749
91.07	0.07846749
91.32	0.07846749
91.57	0.07846749
91.82	0.07846749
92.07	0.07846749
92.32	0.07846749
92.57	0.07846749
92.82	0.07846749
93.07	0.07846749
93.32	0.07846749
93.57	0.07846749
93.82	0.07846749
94.07	0.07846749
94.32	0.07846749
94.57	0.07846749
94.82	0.07846749
95.07	0.07846749
95.32	0.07846749
95.57	0.07846749
95.82	0.07846749
96.07	0.07846749
96.32	0.07846749
96.57	0.07846749
96.82	0.07846749
97.07	0.057123065
97.32	0.02229794
97.57	0.02229794
97.82	0.02229794
98.07	0.02229794
98.32	0.02229794
98.57	0.02229794
98.82	0.02229794
99.07	0.02229794
99.32	0.02229794
99.57	0.02229794
99.82	0.02229794
100.07	0.02229794
100.32	0.02229794
100.57	0.02229794
100.82	0.02229794
101.07	0.02229794
101.32	0.02229794
101.57	0.02229794
101.82	0.02229794
102.07	0.02229794
102.32	0.02229794
102.57	0.02229794
102.82	0.02229794
103.07	0.14411165
103.32	0.13603012
103.57	0.023564471
103.82	0.04147102
104.07	0.013300306
104.57	0.017094802
104.82	0.01504344
105.32	0.0013440424
105.57	0.049479175
105.82	0.038817182
106.07	0.07182153
106.32	0.03235619
106.57	0.013395678
106.82	0.01523506
107.07	0.025653867
107.32	0.03312873
107.57	0.007400902
107.82	0.01782965
108.07	0.028259087
108.32	0.010257427
108.57	0.052102316
108.82	0.0039044756
109.32	0.013411928
109.57	0.018416524
109.82	0.010571211
110.07	0.021919122
110.32	0.034928
110.57	0.0132017415
111.32	0.023767902
111.57	0.016868792
111.82	0.00889918
112.07	0.012113983
112.32	0.018642131
112.57	0.0041388227
112.82	0.021300634
113.07	0.0020403813
113.32	0.0040507205
113.57	0.0072791837
113.82	0.0090787215
114.07	0.012519846
114.32	0.014223014
114.57	0.011472221
114.82	0.011220449
115.07	0.0096866125
115.32	0.014837942
115.57	0.026941638
115.82	0.020437993
116.07	0.019597635
116.32	0.019434562
116.57	0.037281357
116.82	0.033735257
117.07	0.031070817
117.32	0.018869083
117.57	0.20959346
117.82	0.017855218
118.07	0.012438771
118.32	0.014774714
118.57	0.016847081
118.82	0.021251444
119.07	0.031252835
119.32	0.03750869
119.57	0.024313284
119.82	0.033735864
120.07	0.040460497
120.32	0.025045723
120.57	0.36877328
120.82	0.034707226
121.07	0.0022773955
121.32	0.28259334
121.57	19.267462
121.82	0.27262157
122.07	0.025609305
122.32	0.027292788
122.57	0.020816173
122.82	0.0204022
123.07	0.016759137
123.32	0.015157423
123.57	0.014844694
123.82	0.06770897
124.07	0.016630182
124.32	0.04337112
124.57	0.0124224555
124.82	0.015334707
125.07	0.013202242
125.32	0.019883323
125.57	0.017827598
125.82	0.024909746
126.07	0.03498716
126.32	0.008203323
126.57	0.07257336
126.82	0.010158254
127.07	0.009755111
127.32	0.008618263
127.57	0.021938764
127.82	0.018770088
128.06999	0.014776999
128.31999	0.007699544
128.56999	0.007155209
128.81999	0.018308388
129.06999	0.013305839
129.31999	0.009112341
129.56999	0.019697977
129.81999	0.019316858
130.06999	0.029892381
130.31999	0.1677727
130.56999	0.37266555
130.81999	0.037433714
131.06999	0.024016688
131.31999	0.018846415
131.56999	0.01961125
131.81999	0.0272452
132.06999	0.011624537
132.31999	0.016897831
132.56999	0.013834691
132.81999	0.022317257
133.06999	0.013364347
133.31999	0.14788797
133.56999	0.50232476
133.81999	0.014251849
134.06999	0.013396425
134.31999	0.015603616
134.56999	0.014782693
134.81999	0.015867155
135.06999	0.041291114
135.31999	0.019295312
135.56999	0.06318165
135.81999	0.042920284
136.06999	0.024480466
136.31999	0.024720773
136.56999	0.018263053
136.81999	0.021781597
137.06999	0.029789489
137.31999	0.02519708
137.56999	0.02328407
137.81999	0.022391304
138.06999	0.02798208
138.31999	0.022469396
138.56999	0.022588829
138.81999	0.024928719
139.06999	0.024431556
139.31999	0.21700701
139.56999	0.026770521
139.81999	0.028331105
140.06999	0.052253515
140.31999	0.122725815
140.56999	0.04166091
140.81999	0.03327781
141.06999	0.036297996
141.31999	0.03512603
141.56999	0.03533189
141.81999	0.033179425
142.06999	0.032440253
142.31999	0.03457267
142.56999	0.048741847
142.81999	0.033761807
143.06999	0.039219305
143.31999	0.052245095
143.56999	0.04577598
143.81999	0.03884858
144.06999	0.040860645
144.31999	0.044136364
144.56999	0.047045335
144.81999	0.0432415
145.06999	0.042835772
145.31999	0.044490293
145.56999	0.05190063
145.81999	0.050481502
146.06999	0.04673344
146.31999	0.056246296
146.56999	0.05273981
146.81999	0.07249127
147.06999	0.05901917
147.31999	0.11934865
147.56999	0.05668973
147.81999	0.053394478
148.06999	0.081052005
148.31999	0.07065664
148.56999	0.0784951
148.81999	0.061860718
149.06999	0.060600743
149.31999	0.070335574
149.56999	0.06294764
149.81999	0.06756147
150.06999	0.077178136
150.31999	0.07590392
150.56999	0.07216239
150.81999	0.074387744
151.06999	0.09023626
151.31999	0.08102541
151.56999	0.08256781
151.81999	0.08096407
152.06999	0.08481045
152.31999	0.089660875
152.56999	0.14288114
152.81999	0.09652136
153.06999	0.091539465
153.31999	0.1614234
153.56999	0.10368083
153.81999	0.10588491
154.06999	0.1170996
154.31999	0.100287795
154.56999	0.106165715
154.81999	0.50286186
155.06999	0.32246456
155.31999	0.102473654
155.56999	0.110053085
155.81999	0.17295806
156.06999	0.28540584
156.31999	0.1283209
156.56999	0.13249856
156.81999	0.12805137
157.06999	0.17252384
157.31999	0.15943147
157.56999	0.16950093
157.81999	0.12580842
158.06999	0.14803779
158.31999	0.1271235
158.56999	0.15729412
158.81999	0.1621545
159.06999	0.14616875
159.31999	0.15258281
159.56999	0.1479832
159.81999	0.12926947
160.06999	0.16196
160.31999	0.18474162
160.56999	0.15442473
160.81999	0.17488241
161.06999	0.20021653
161.31999	0.23289406
161.56999	0.16642845
161.81999	0.18142016
162.06999	0.21022174
162.31999	0.21230343
162.56999	0.24328381
162.81999	0.23367107
163.06999	0.20210147
163.31999	0.27473423
163.56999	0.19985908
163.81999	0.24891055
164.06999	0.3285608
164.31999	0.26166815
164.56999	0.23573413
164.81999	0.24761306
165.06999	0.21122095
165.31999	0.2645234
165.56999	0.5039508
165.81999	0.7238016
166.06999	0.28865507
166.31999	0.30279702
166.56999	0.31449202
166.81999	0.26173288
167.06999	0.39432478
167.31999	0.32658204
167.56999	0.32655206
167.81999	0.32341713
168.06999	0.255353
168.31999	0.2600997
168.56999	0.43404642
168.81999	0.30551147
169.06999	0.44418037
169.31999	0.47174507
169.56999	0.5330154
169.81999	0.43901002
170.06999	0.4733679
170.31999	0.35317126
170.56999	0.39555308
170.81999	0.40481246
171.06999	0.43080133
171.31999	0.45170808
171.56999	0.59276617
171.81999	0.5967624
172.06999	0.5936388
172.31999	0.5243318
172.56999	0.65574443
172.81999	0.5102306
173.06999	0.3684971
173.31999	0.41411504
173.56999	0.46548066
173.81999	0.47147065
174.06999	0.60206455
174.31999	0.6409309
174.56999	0.7399527
174.81999	0.64316
175.06999	0.7834316
175.31999	0.77892816
175.56999	0.8092774
175.81999	0.80124784
176.06999	0.7853982
176.31999	0.76065063
176.56999	0.6928912
176.81999	0.8824635
177.06999	0.97049206
177.31999	1.0865521
177.56999	0.81636125
177.81999	1.0219505
178.06999	1.0826148
178.31999	1.058242
178.56999	1.0980814
178.81999	1.1553626
179.06999	1.2371347
179.31999	0.92108
179.56999	1.0103524
179.81999	1.1009068
180.06999	1.1682609
180.31999	1.1866002
180.56999	1.2288079
180.81999	1.6999016
181.06999	1.2763323
181.31999	1.196261
181.56999	2.1443207
181.81999	1.759765
182.06999	1.4037293
182.31999	1.5815973
182.56999	1.5564082
182.81999	1.4547229
183.06999	1.5002332
183.31999	1.5791104
183.56999	1.6277821
183.81999	1.7325805
184.06999	1.3685685
184.31999	1.5139633
184.56999	1.4834237
184.81999	1.2691717
185.06999	1.3745978
185.31999	1.5238752
185.56999	1.9068588
185.81999	1.5904565
186.06999	1.7273059
186.31999	1.7312224
186.56999	1.7110026
186.81999	2.1096618
187.06999	2.1381946
187.31999	2.1172528
187.56999	2.0418172
187.81999	1.9803598
188.06999	1.8976158
188.31999	2.3526297
188.56999	2.2673657
188.81999	2.30553
189.06999	2.586999
189.31999	2.5912752
189.56999	2.610035
189.81999	2.2074575
190.06999	2.4483385
190.31999	2.6982708
190.56999	2.52839
190.81999	2.8879795
191.06999	2.509817
191.31999	2.699718
191.56999	3.010093
191.81999	2.809578
192.06999	3.1590862
192.31999	2.9901905
192.56999	2.95966
192.81999	3.0316148
193.06999	2.2969353
193.31999	2.2559764
193.56999	2.0503635
193.81999	2.784066
194.06999	3.3834677
194.31999	3.9338837
194.56999	3.510919
194.81999	4.156818
195.06999	3.5657458
195.31999	3.6625173
195.56999	3.7767463
195.81999	3.8305914
196.06999	3.7726789
196.31999	3.7989483
196.56999	4.3716
196.81999	4.565119
197.06999	4.2906923
197.31999	4.236929
197.56999	4.2502403
197.81999	4.2009463
198.06999	4.4632034
198.31999	4.4926534
198.56999	4.279838
198.81999	4.1430607
199.06999	4.294798
199.31999	4.9194074
199.56999	4.645118
199.81999	4.5135007
200.06999	4.854612
200.31999	4.9789357
200.56999	5.094257
200.81999	4.921157
201.06999	5.075422
201.31999	5.499731
201.56999	5.3155
201.81999	5.7842684
202.06999	5.520518
202.31999	5.55863
202.56999	4.6106267
202.81999	5.7635026
203.06999	6.187759
203.31999	5.7400494
203.56999	6.0698895
203.81999	6.224003
204.06999	6.1922655
204.31999	6.767909
204.56999	6.948566
204.81999	6.665903
205.06999	6.8777676
205.31999	7.187048
205.56999	6.7077475
205.81999	6.931228
206.06999	7.4440975
206.31999	6.660597
206.56999	7.44308
206.81999	7.7200513
207.06999	7.750079
207.31999	7.9165573
207.56999	8.259305
207.81999	8.311332
208.06999	8.6546755
208.31999	8.653907
208.56999	9.101988
208.81999	10.835429
209.06999	10.482779
209.31999	12.266392
209.56999	12.878561
209.81999	13.694244
210.06999	13.154231
210.31999	14.852866
210.56999	18.633928
210.81999	16.082592
211.06999	14.032458
211.31999	19.16883
211.56999	16.8347
211.81999	21.519741
212.06999	24.163473
212.31999	14.657105
212.56999	13.79572
212.81999	19.891016
213.06999	16.26198
213.31999	18.606567
213.56999	15.373262
213.81999	19.95041
214.06999	23.517815
214.31999	26.472038
214.56999	22.99025
214.81999	23.750809
215.06999	21.506222
215.31999	25.489292
215.56999	20.95043
215.81999	13.723774
216.06999	21.652145
216.31999	22.544716
216.56999	19.2468
216.81999	16.932257
217.06999	18.275
217.31999	21.935282
217.56999	17.245544
217.81999	17.506123
218.06999	30.213123
218.31999	28.181078
218.56999	27.414772
218.81999	19.782658
219.06999	23.981962
219.31999	30.024435
219.56999	23.168884
219.81999	30.33714
220.06999	22.526075
220.31999	35.02404
220.56999	31.953983
220.81999	22.261421
221.06999	18.968895
221.31999	24.36515
221.56999	25.809216
221.81999	17.901953
222.06999	31.033073
222.31999	28.852873
222.56999	27.978342
222.81999	26.903648
223.06999	26.03521
223.31999	40.877373
223.56999	41.476967
223.81999	32.68979
224.06999	35.184017
224.31999	28.95528
224.56999	32.17173
224.81999	39.11963
225.06999	31.081238
225.31999	29.64488
225.56999	30.371
225.81999	31.00491
226.06999	26.831985
226.31999	27.592546
226.56999	21.235981
226.81999	22.135107
227.06999	20.280987
227.31999	22.533236
227.56999	22.726357
227.81999	27.08351
228.06999	31.900604
228.31999	34.681698
228.56999	35.005096
228.81999	28.482079
229.06999	27.622707
229.31999	30.536032
229.56999	35.8046
229.81999	21.868744
230.06999	25.610254
230.31999	28.608076
230.56999	40.612217
230.81999	39.34588
231.06999	25.31148
231.31999	22.983448
231.56999	36.14458
231.81999	36.869972
232.06999	24.621338
232.31999	41.988014
232.56999	31.120682
232.81999	31.46642
233.06999	34.474407
233.31999	26.214134
233.56999	36.843945
233.81999	22.239414
234.06999	28.608934
234.31999	26.993217
234.56999	20.874344
234.81999	22.318562
235.06999	34.41811
235.31999	40.818794
235.56999	35.013683
235.81999	40.000282
236.06999	24.88652
236.31999	35.98173
236.56999	30.379028
236.81999	28.169617
237.06999	41.02844
237.31999	33.989548
237.56999	32.613415
237.81999	40.871758
238.06999	26.544249
238.31999	17.815382
238.56999	35.629917
238.81999	29.312384
239.06999	40.55037
239.31999	40.919403
239.56999	21.461489
239.81999	33.641026
240.06999	32.04698
240.31999	36.993195
240.56999	22.838211
240.81999	29.690197
241.06999	27.042463
241.31999	29.616726
241.56999	38.36701
241.81999	45.51609
242.06999	46.973362
242.31999	51.8914
242.56999	45.064117
242.81999	52.399254
243.06999	50.362885
243.31999	46.497322
243.56999	41.596226
243.81999	48.595215
244.06999	46.13279
244.31999	49.164726
244.56999	46.369682
244.81999	37.8138
245.06999	38.660923
245.31999	35.341892
245.56999	38.471523
245.81999	40.909344
246.06999	36.41339
246.31999	32.716778
246.56999	40.29387
246.81999	41.576656
247.06999	42.559513
247.31999	39.41562
247.56999	48.95012
247.81999	42.53033
248.06999	40.972027
248.31999	30.484154
248.56999	38.726223
248.81999	32.214943
249.06999	24.548355
249.31999	41.162983
249.56999	51.077656
249.81999	51.36937
250.06999	49.6467
250.31999	47.0495
250.56999	48.764633
250.81999	38.601196
251.06999	47.222
251.31999	43.50492
251.56999	28.904963
251.81999	33.597202
252.06999	37.06283
252.31999	32.329834
252.56999	32.677124
252.81999	31.695068
253.06999	37.149002
253.31999	43.870697
253.56999	42.39571
253.81999	41.959106
254.06999	42.335392
254.31999	50.916843
254.56999	44.733444
254.81999	46.25912
255.06999	43.29697
255.31999	63.91441
255.56999	67.54782
255.81999	61.695686
256.07	73.29035
256.32	51.31233
256.57	83.91601
256.82	82.119095
257.07	98.948326
257.32	104.25328
257.57	66.47731
257.82	86.04256
258.07	123.220436
258.32	110.280945
258.57	58.109787
258.82	87.9152
259.07	127.38336
259.32	74.67665
259.57	85.58076
259.82	58.143925
260.07	49.121872
260.32	93.288574
260.57	70.53259
260.82	56.115494
261.07	74.095505
261.32	46.356033
261.57	77.85102
261.82	68.71919
262.07	92.61351
262.32	85.78371
262.57	86.77178
262.82	68.67701
263.07	62.881664
